Sample Name, Sample-6
Time, November 05 14:57:34 2021
Operator, Jose Mendez
Lamp, 0
Slit,0.0
Scan From, 1100.0nm
Scan To, 190.0nm
Scan Step, 1.0nm
Sample Filter, 10
memo, 
WL(nm), Abs, T%
190.0, 4.1263, 0.01
191.0, 4.2832, 0.01
192.0, 4.3753, 0.00
193.0, 4.2664, 0.01
194.0, 4.2535, 0.01
195.0, 4.2294, 0.01
196.0, 4.3196, 0.00
197.0, 4.3833, 0.00
198.0, 4.4213, 0.00
199.0, 4.4546, 0.00
200.0, 4.4826, 0.00
201.0, 4.5089, 0.00
202.0, 4.5323, 0.00
203.0, 4.5435, 0.00
204.0, 4.3200, 0.00
205.0, 4.3412, 0.00
206.0, 4.3620, 0.00
207.0, 4.3800, 0.00
208.0, 4.3970, 0.00
209.0, 4.4127, 0.00
210.0, 4.4279, 0.00
211.0, 4.4414, 0.00
212.0, 4.4545, 0.00
213.0, 4.4663, 0.00
214.0, 4.4776, 0.00
215.0, 4.4883, 0.00
216.0, 4.4985, 0.00
217.0, 4.5078, 0.00
218.0, 4.5169, 0.00
219.0, 4.5252, 0.00
220.0, 4.5326, 0.00
221.0, 4.5395, 0.00
222.0, 4.5465, 0.00
223.0, 4.5536, 0.00
224.0, 4.5601, 0.00
225.0, 4.5664, 0.00
226.0, 4.5730, 0.00
227.0, 4.5798, 0.00
228.0, 4.5868, 0.00
229.0, 4.5931, 0.00
230.0, 4.5998, 0.00
231.0, 4.6057, 0.00
232.0, 4.6108, 0.00
233.0, 4.6157, 0.00
234.0, 4.6188, 0.00
235.0, 4.6213, 0.00
236.0, 4.6222, 0.00
237.0, 4.6226, 0.00
238.0, 4.6218, 0.00
239.0, 4.6207, 0.00
240.0, 4.6187, 0.00
241.0, 4.6163, 0.00
242.0, 4.6134, 0.00
243.0, 4.6101, 0.00
244.0, 4.6066, 0.00
245.0, 4.4265, 0.00
246.0, 3.2043, 0.06
247.0, 2.8782, 0.13
248.0, 2.6388, 0.23
249.0, 2.4607, 0.35
250.0, 2.3057, 0.49
251.0, 2.1755, 0.67
252.0, 2.0569, 0.88
253.0, 1.9540, 1.11
254.0, 1.8653, 1.36
255.0, 1.7824, 1.65
256.0, 1.7089, 1.95
257.0, 1.6382, 2.30
258.0, 1.5753, 2.66
259.0, 1.5162, 3.05
260.0, 1.4603, 3.46
261.0, 1.4089, 3.90
262.0, 1.3592, 4.37
263.0, 1.3130, 4.86
264.0, 1.2690, 5.38
265.0, 1.2270, 5.93
266.0, 1.1884, 6.48
267.0, 1.1559, 6.98
268.0, 1.1380, 7.28
269.0, 1.0820, 8.28
270.0, 1.0492, 8.93
271.0, 1.0186, 9.58
272.0, 0.9883, 10.27
273.0, 0.9591, 10.99
274.0, 0.9311, 11.72
275.0, 0.9030, 12.50
276.0, 0.8763, 13.30
277.0, 0.8506, 14.11
278.0, 0.8263, 14.92
279.0, 0.8030, 15.74
280.0, 0.7798, 16.61
281.0, 0.7576, 17.48
282.0, 0.7363, 18.35
283.0, 0.7154, 19.26
284.0, 0.6944, 20.21
285.0, 0.6742, 21.17
286.0, 0.6545, 22.16
287.0, 0.6353, 23.16
288.0, 0.6167, 24.17
289.0, 0.5986, 25.20
290.0, 0.5809, 26.25
291.0, 0.5642, 27.27
292.0, 0.5478, 28.33
293.0, 0.5322, 29.36
294.0, 0.5167, 30.43
295.0, 0.5018, 31.50
296.0, 0.4869, 32.59
297.0, 0.4725, 33.69
298.0, 0.4585, 34.80
299.0, 0.4448, 35.91
300.0, 0.4315, 37.03
301.0, 0.4190, 38.11
302.0, 0.4067, 39.20
303.0, 0.3949, 40.28
304.0, 0.3834, 41.36
305.0, 0.3728, 42.38
306.0, 0.3621, 43.44
307.0, 0.3517, 44.49
308.0, 0.3416, 45.54
309.0, 0.3318, 46.58
310.0, 0.3224, 47.60
311.0, 0.3134, 48.60
312.0, 0.3042, 49.63
313.0, 0.2959, 50.59
314.0, 0.2879, 51.54
315.0, 0.2800, 52.48
316.0, 0.2728, 53.36
317.0, 0.2654, 54.27
318.0, 0.2585, 55.14
319.0, 0.2519, 55.99
320.0, 0.2455, 56.82
321.0, 0.2392, 57.65
322.0, 0.2334, 58.42
323.0, 0.2277, 59.20
324.0, 0.2222, 59.95
325.0, 0.2170, 60.68
326.0, 0.2119, 61.39
327.0, 0.2072, 62.06
328.0, 0.2028, 62.69
329.0, 0.1984, 63.33
330.0, 0.1941, 63.95
331.0, 0.1904, 64.50
332.0, 0.1865, 65.09
333.0, 0.1834, 65.55
334.0, 0.1815, 65.84
335.0, 0.1748, 66.87
336.0, 0.1717, 67.34
337.0, 0.1690, 67.76
338.0, 0.1665, 68.15
339.0, 0.1653, 68.34
340.0, 0.1613, 68.98
341.0, 0.1586, 69.41
342.0, 0.1562, 69.79
343.0, 0.1539, 70.16
344.0, 0.1516, 70.54
345.0, 0.1493, 70.91
346.0, 0.1475, 71.21
347.0, 0.1454, 71.54
348.0, 0.1436, 71.85
349.0, 0.1419, 72.13
350.0, 0.1401, 72.43
351.0, 0.1385, 72.70
352.0, 0.1373, 72.89
353.0, 0.1357, 73.16
354.0, 0.1340, 73.45
355.0, 0.1327, 73.67
356.0, 0.1316, 73.85
357.0, 0.1304, 74.06
358.0, 0.1294, 74.24
359.0, 0.1283, 74.42
360.0, 0.1275, 74.56
361.0, 0.1267, 74.69
362.0, 0.1259, 74.83
363.0, 0.1250, 74.99
364.0, 0.1242, 75.12
365.0, 0.1236, 75.24
366.0, 0.1228, 75.38
367.0, 0.1221, 75.49
368.0, 0.1216, 75.57
369.0, 0.1210, 75.68
370.0, 0.1207, 75.73
371.0, 0.1192, 76.00
372.0, 0.1187, 76.09
373.0, 0.1179, 76.23
374.0, 0.1175, 76.30
375.0, 0.1168, 76.43
376.0, 0.1166, 76.45
377.0, 0.1155, 76.65
378.0, 0.1152, 76.70
379.0, 0.1147, 76.79
380.0, 0.1145, 76.83
381.0, 0.1139, 76.93
382.0, 0.1136, 76.98
383.0, 0.1133, 77.04
384.0, 0.1130, 77.09
385.0, 0.1124, 77.19
386.0, 0.1120, 77.26
387.0, 0.1117, 77.33
388.0, 0.1113, 77.40
389.0, 0.1111, 77.43
390.0, 0.1110, 77.44
391.0, 0.1107, 77.51
392.0, 0.1103, 77.58
393.0, 0.1101, 77.61
394.0, 0.1097, 77.68
395.0, 0.1095, 77.71
396.0, 0.1094, 77.73
397.0, 0.1089, 77.82
398.0, 0.1089, 77.82
399.0, 0.1087, 77.85
400.0, 0.1084, 77.91
401.0, 0.1082, 77.95
402.0, 0.1080, 77.98
403.0, 0.1076, 78.06
404.0, 0.1074, 78.10
405.0, 0.1072, 78.12
406.0, 0.1070, 78.15
407.0, 0.1066, 78.23
408.0, 0.1066, 78.23
409.0, 0.1064, 78.26
410.0, 0.1061, 78.32
411.0, 0.1059, 78.36
412.0, 0.1058, 78.38
413.0, 0.1057, 78.40
414.0, 0.1055, 78.43
415.0, 0.1053, 78.47
416.0, 0.1053, 78.46
417.0, 0.1049, 78.53
418.0, 0.1047, 78.58
419.0, 0.1046, 78.60
420.0, 0.1044, 78.64
421.0, 0.1042, 78.66
422.0, 0.1042, 78.67
423.0, 0.1039, 78.72
424.0, 0.1039, 78.73
425.0, 0.1038, 78.74
426.0, 0.1036, 78.77
427.0, 0.1035, 78.80
428.0, 0.1033, 78.82
429.0, 0.1031, 78.86
430.0, 0.1033, 78.83
431.0, 0.1031, 78.87
432.0, 0.1029, 78.91
433.0, 0.1029, 78.91
434.0, 0.1028, 78.92
435.0, 0.1027, 78.94
436.0, 0.1026, 78.96
437.0, 0.1025, 78.98
438.0, 0.1023, 79.01
439.0, 0.1023, 79.00
440.0, 0.1022, 79.02
441.0, 0.1022, 79.04
442.0, 0.1020, 79.08
443.0, 0.1021, 79.06
444.0, 0.1019, 79.09
445.0, 0.1017, 79.12
446.0, 0.1017, 79.12
447.0, 0.1017, 79.12
448.0, 0.1017, 79.12
449.0, 0.1013, 79.20
450.0, 0.1014, 79.18
451.0, 0.1003, 79.38
452.0, 0.0999, 79.44
453.0, 0.0998, 79.46
454.0, 0.0999, 79.45
455.0, 0.0994, 79.54
456.0, 0.0994, 79.55
457.0, 0.0989, 79.64
458.0, 0.0990, 79.61
459.0, 0.0991, 79.60
460.0, 0.0988, 79.65
461.0, 0.0987, 79.68
462.0, 0.0983, 79.75
463.0, 0.0983, 79.75
464.0, 0.0983, 79.74
465.0, 0.0981, 79.78
466.0, 0.0980, 79.79
467.0, 0.0980, 79.80
468.0, 0.0978, 79.84
469.0, 0.0975, 79.89
470.0, 0.0974, 79.91
471.0, 0.0973, 79.93
472.0, 0.0973, 79.94
473.0, 0.0970, 79.98
474.0, 0.0968, 80.02
475.0, 0.0969, 80.00
476.0, 0.0967, 80.04
477.0, 0.0964, 80.10
478.0, 0.0964, 80.09
479.0, 0.0964, 80.09
480.0, 0.0960, 80.17
481.0, 0.0960, 80.17
482.0, 0.0959, 80.19
483.0, 0.0957, 80.23
484.0, 0.0958, 80.21
485.0, 0.0954, 80.27
486.0, 0.0954, 80.28
487.0, 0.0952, 80.31
488.0, 0.0951, 80.34
489.0, 0.0949, 80.37
490.0, 0.0948, 80.40
491.0, 0.0947, 80.42
492.0, 0.0948, 80.40
493.0, 0.0944, 80.46
494.0, 0.0944, 80.47
495.0, 0.0943, 80.48
496.0, 0.0941, 80.53
497.0, 0.0938, 80.57
498.0, 0.0937, 80.59
499.0, 0.0936, 80.61
500.0, 0.0934, 80.65
501.0, 0.0936, 80.62
502.0, 0.0933, 80.67
503.0, 0.0932, 80.68
504.0, 0.0929, 80.73
505.0, 0.0928, 80.75
506.0, 0.0928, 80.76
507.0, 0.0926, 80.79
508.0, 0.0926, 80.80
509.0, 0.0924, 80.84
510.0, 0.0924, 80.83
511.0, 0.0922, 80.87
512.0, 0.0921, 80.89
513.0, 0.0921, 80.90
514.0, 0.0918, 80.94
515.0, 0.0919, 80.94
516.0, 0.0916, 80.98
517.0, 0.0914, 81.01
518.0, 0.0914, 81.02
519.0, 0.0911, 81.07
520.0, 0.0911, 81.07
521.0, 0.0912, 81.07
522.0, 0.0908, 81.14
523.0, 0.0908, 81.14
524.0, 0.0909, 81.11
525.0, 0.0905, 81.20
526.0, 0.0902, 81.24
527.0, 0.0901, 81.27
528.0, 0.0902, 81.25
529.0, 0.0902, 81.24
530.0, 0.0903, 81.23
531.0, 0.0900, 81.29
532.0, 0.0899, 81.31
533.0, 0.0898, 81.33
534.0, 0.0895, 81.37
535.0, 0.0893, 81.42
536.0, 0.0892, 81.43
537.0, 0.0892, 81.44
538.0, 0.0890, 81.48
539.0, 0.0891, 81.46
540.0, 0.0887, 81.52
541.0, 0.0888, 81.51
542.0, 0.0888, 81.51
543.0, 0.0887, 81.53
544.0, 0.0888, 81.52
545.0, 0.0887, 81.53
546.0, 0.0885, 81.56
547.0, 0.0884, 81.57
548.0, 0.0882, 81.63
549.0, 0.0881, 81.63
550.0, 0.0879, 81.68
551.0, 0.0877, 81.71
552.0, 0.0876, 81.73
553.0, 0.0874, 81.77
554.0, 0.0874, 81.77
555.0, 0.0873, 81.79
556.0, 0.0871, 81.83
557.0, 0.0869, 81.87
558.0, 0.0869, 81.87
559.0, 0.0867, 81.90
560.0, 0.0865, 81.93
561.0, 0.0864, 81.96
562.0, 0.0863, 81.99
563.0, 0.0861, 82.02
564.0, 0.0860, 82.03
565.0, 0.0860, 82.04
566.0, 0.0859, 82.05
567.0, 0.0859, 82.05
568.0, 0.0859, 82.06
569.0, 0.0858, 82.08
570.0, 0.0857, 82.09
571.0, 0.0856, 82.11
572.0, 0.0856, 82.12
573.0, 0.0853, 82.17
574.0, 0.0854, 82.15
575.0, 0.0852, 82.18
576.0, 0.0852, 82.19
577.0, 0.0850, 82.22
578.0, 0.0849, 82.25
579.0, 0.0848, 82.26
580.0, 0.0848, 82.26
581.0, 0.0848, 82.25
582.0, 0.0847, 82.28
583.0, 0.0847, 82.28
584.0, 0.0844, 82.33
585.0, 0.0843, 82.35
586.0, 0.0842, 82.37
587.0, 0.0840, 82.42
588.0, 0.0839, 82.44
589.0, 0.0837, 82.47
590.0, 0.0835, 82.51
591.0, 0.0835, 82.50
592.0, 0.0834, 82.53
593.0, 0.0834, 82.52
594.0, 0.0834, 82.52
595.0, 0.0832, 82.56
596.0, 0.0831, 82.59
597.0, 0.0830, 82.60
598.0, 0.0829, 82.62
599.0, 0.0828, 82.64
600.0, 0.0826, 82.67
601.0, 0.0827, 82.67
602.0, 0.0827, 82.67
603.0, 0.0824, 82.71
604.0, 0.0824, 82.71
605.0, 0.0823, 82.73
606.0, 0.0822, 82.75
607.0, 0.0820, 82.78
608.0, 0.0819, 82.81
609.0, 0.0818, 82.83
610.0, 0.0816, 82.87
611.0, 0.0815, 82.89
612.0, 0.0815, 82.90
613.0, 0.0816, 82.88
614.0, 0.0815, 82.89
615.0, 0.0812, 82.94
616.0, 0.0811, 82.97
617.0, 0.0810, 82.98
618.0, 0.0811, 82.97
619.0, 0.0810, 82.99
620.0, 0.0809, 83.01
621.0, 0.0808, 83.03
622.0, 0.0806, 83.05
623.0, 0.0806, 83.06
624.0, 0.0805, 83.08
625.0, 0.0806, 83.07
626.0, 0.0803, 83.12
627.0, 0.0804, 83.11
628.0, 0.0803, 83.12
629.0, 0.0801, 83.16
630.0, 0.0801, 83.16
631.0, 0.0798, 83.21
632.0, 0.0798, 83.21
633.0, 0.0798, 83.22
634.0, 0.0797, 83.23
635.0, 0.0796, 83.24
636.0, 0.0794, 83.29
637.0, 0.0794, 83.30
638.0, 0.0792, 83.33
639.0, 0.0792, 83.34
640.0, 0.0792, 83.33
641.0, 0.0789, 83.39
642.0, 0.0790, 83.37
643.0, 0.0789, 83.40
644.0, 0.0785, 83.46
645.0, 0.0786, 83.45
646.0, 0.0788, 83.41
647.0, 0.0785, 83.47
648.0, 0.0785, 83.46
649.0, 0.0784, 83.49
650.0, 0.0783, 83.50
651.0, 0.0782, 83.51
652.0, 0.0780, 83.57
653.0, 0.0780, 83.57
654.0, 0.0778, 83.60
655.0, 0.0777, 83.62
656.0, 0.0778, 83.61
657.0, 0.0777, 83.62
658.0, 0.0774, 83.67
659.0, 0.0775, 83.66
660.0, 0.0773, 83.70
661.0, 0.0772, 83.71
662.0, 0.0771, 83.74
663.0, 0.0770, 83.75
664.0, 0.0770, 83.75
665.0, 0.0768, 83.79
666.0, 0.0768, 83.79
667.0, 0.0766, 83.84
668.0, 0.0766, 83.83
669.0, 0.0764, 83.87
670.0, 0.0763, 83.88
671.0, 0.0763, 83.89
672.0, 0.0760, 83.95
673.0, 0.0760, 83.95
674.0, 0.0758, 83.98
675.0, 0.0758, 83.99
676.0, 0.0757, 84.00
677.0, 0.0757, 84.01
678.0, 0.0755, 84.04
679.0, 0.0756, 84.03
680.0, 0.0755, 84.04
681.0, 0.0755, 84.04
682.0, 0.0753, 84.08
683.0, 0.0754, 84.07
684.0, 0.0753, 84.07
685.0, 0.0752, 84.11
686.0, 0.0750, 84.14
687.0, 0.0749, 84.17
688.0, 0.0748, 84.18
689.0, 0.0749, 84.16
690.0, 0.0747, 84.20
691.0, 0.0746, 84.23
692.0, 0.0746, 84.22
693.0, 0.0747, 84.20
694.0, 0.0745, 84.24
695.0, 0.0743, 84.27
696.0, 0.0742, 84.29
697.0, 0.0743, 84.28
698.0, 0.0740, 84.33
699.0, 0.0739, 84.36
700.0, 0.0738, 84.37
701.0, 0.0738, 84.37
702.0, 0.0738, 84.37
703.0, 0.0736, 84.41
704.0, 0.0735, 84.42
705.0, 0.0735, 84.42
706.0, 0.0735, 84.44
707.0, 0.0734, 84.45
708.0, 0.0734, 84.46
709.0, 0.0733, 84.48
710.0, 0.0733, 84.48
711.0, 0.0731, 84.51
712.0, 0.0729, 84.55
713.0, 0.0729, 84.55
714.0, 0.0728, 84.56
715.0, 0.0727, 84.58
716.0, 0.0727, 84.58
717.0, 0.0725, 84.63
718.0, 0.0726, 84.61
719.0, 0.0724, 84.64
720.0, 0.0725, 84.63
721.0, 0.0723, 84.66
722.0, 0.0722, 84.69
723.0, 0.0720, 84.73
724.0, 0.0720, 84.72
725.0, 0.0719, 84.74
726.0, 0.0719, 84.73
727.0, 0.0719, 84.74
728.0, 0.0719, 84.74
729.0, 0.0719, 84.74
730.0, 0.0717, 84.78
731.0, 0.0716, 84.80
732.0, 0.0715, 84.82
733.0, 0.0713, 84.85
734.0, 0.0714, 84.84
735.0, 0.0712, 84.89
736.0, 0.0712, 84.87
737.0, 0.0713, 84.86
738.0, 0.0712, 84.88
739.0, 0.0710, 84.92
740.0, 0.0711, 84.89
741.0, 0.0709, 84.93
742.0, 0.0708, 84.95
743.0, 0.0708, 84.95
744.0, 0.0709, 84.94
745.0, 0.0706, 84.99
746.0, 0.0705, 85.02
747.0, 0.0706, 85.00
748.0, 0.0704, 85.04
749.0, 0.0702, 85.08
750.0, 0.0703, 85.05
751.0, 0.0703, 85.06
752.0, 0.0702, 85.08
753.0, 0.0703, 85.05
754.0, 0.0699, 85.13
755.0, 0.0700, 85.12
756.0, 0.0700, 85.11
757.0, 0.0698, 85.16
758.0, 0.0698, 85.16
759.0, 0.0698, 85.16
760.0, 0.0698, 85.16
761.0, 0.0695, 85.22
762.0, 0.0694, 85.23
763.0, 0.0694, 85.23
764.0, 0.0693, 85.25
765.0, 0.0693, 85.26
766.0, 0.0693, 85.26
767.0, 0.0692, 85.28
768.0, 0.0690, 85.31
769.0, 0.0689, 85.32
770.0, 0.0688, 85.36
771.0, 0.0689, 85.34
772.0, 0.0690, 85.32
773.0, 0.0689, 85.33
774.0, 0.0689, 85.33
775.0, 0.0688, 85.34
776.0, 0.0687, 85.37
777.0, 0.0685, 85.40
778.0, 0.0682, 85.46
779.0, 0.0684, 85.44
780.0, 0.0685, 85.42
781.0, 0.0685, 85.42
782.0, 0.0686, 85.39
783.0, 0.0685, 85.41
784.0, 0.0684, 85.43
785.0, 0.0683, 85.45
786.0, 0.0682, 85.46
787.0, 0.0681, 85.50
788.0, 0.0680, 85.51
789.0, 0.0679, 85.52
790.0, 0.0678, 85.55
791.0, 0.0678, 85.55
792.0, 0.0678, 85.54
793.0, 0.0676, 85.59
794.0, 0.0675, 85.61
795.0, 0.0677, 85.57
796.0, 0.0674, 85.62
797.0, 0.0674, 85.63
798.0, 0.0674, 85.62
799.0, 0.0672, 85.66
800.0, 0.0675, 85.60
801.0, 0.0672, 85.66
802.0, 0.0673, 85.65
803.0, 0.0672, 85.66
804.0, 0.0672, 85.66
805.0, 0.0670, 85.70
806.0, 0.0668, 85.74
807.0, 0.0666, 85.77
808.0, 0.0667, 85.77
809.0, 0.0667, 85.76
810.0, 0.0668, 85.74
811.0, 0.0669, 85.72
812.0, 0.0666, 85.79
813.0, 0.0668, 85.74
814.0, 0.0665, 85.80
815.0, 0.0667, 85.77
816.0, 0.0664, 85.82
817.0, 0.0665, 85.81
818.0, 0.0664, 85.82
819.0, 0.0663, 85.85
820.0, 0.0663, 85.85
821.0, 0.0662, 85.85
822.0, 0.0662, 85.86
823.0, 0.0662, 85.85
824.0, 0.0658, 85.94
825.0, 0.0660, 85.91
826.0, 0.0661, 85.88
827.0, 0.0657, 85.95
828.0, 0.0659, 85.93
829.0, 0.0658, 85.94
830.0, 0.0657, 85.96
831.0, 0.0657, 85.96
832.0, 0.0657, 85.96
833.0, 0.0657, 85.96
834.0, 0.0656, 85.98
835.0, 0.0653, 86.04
836.0, 0.0654, 86.03
837.0, 0.0655, 86.00
838.0, 0.0653, 86.04
839.0, 0.0651, 86.09
840.0, 0.0651, 86.07
841.0, 0.0650, 86.09
842.0, 0.0651, 86.07
843.0, 0.0650, 86.10
844.0, 0.0650, 86.10
845.0, 0.0650, 86.11
846.0, 0.0649, 86.11
847.0, 0.0649, 86.12
848.0, 0.0649, 86.13
849.0, 0.0649, 86.12
850.0, 0.0648, 86.14
851.0, 0.0647, 86.16
852.0, 0.0644, 86.22
853.0, 0.0645, 86.19
854.0, 0.0644, 86.22
855.0, 0.0646, 86.18
856.0, 0.0644, 86.22
857.0, 0.0643, 86.23
858.0, 0.0643, 86.23
859.0, 0.0641, 86.27
860.0, 0.0644, 86.22
861.0, 0.0641, 86.28
862.0, 0.0643, 86.24
863.0, 0.0642, 86.26
864.0, 0.0641, 86.28
865.0, 0.0642, 86.26
866.0, 0.0639, 86.31
867.0, 0.0640, 86.30
868.0, 0.0641, 86.28
869.0, 0.0639, 86.31
870.0, 0.0637, 86.37
871.0, 0.0636, 86.37
872.0, 0.0637, 86.35
873.0, 0.0637, 86.37
874.0, 0.0635, 86.39
875.0, 0.0634, 86.42
876.0, 0.0635, 86.40
877.0, 0.0635, 86.40
878.0, 0.0635, 86.40
879.0, 0.0632, 86.45
880.0, 0.0636, 86.39
881.0, 0.0634, 86.41
882.0, 0.0634, 86.42
883.0, 0.0633, 86.44
884.0, 0.0631, 86.48
885.0, 0.0628, 86.53
886.0, 0.0631, 86.47
887.0, 0.0632, 86.45
888.0, 0.0629, 86.51
889.0, 0.0628, 86.53
890.0, 0.0627, 86.56
891.0, 0.0627, 86.55
892.0, 0.0630, 86.50
893.0, 0.0629, 86.51
894.0, 0.0626, 86.57
895.0, 0.0626, 86.57
896.0, 0.0623, 86.63
897.0, 0.0624, 86.61
898.0, 0.0623, 86.64
899.0, 0.0622, 86.66
900.0, 0.0623, 86.64
901.0, 0.0624, 86.62
902.0, 0.0625, 86.59
903.0, 0.0624, 86.62
904.0, 0.0623, 86.63
905.0, 0.0623, 86.63
906.0, 0.0623, 86.64
907.0, 0.0621, 86.68
908.0, 0.0621, 86.68
909.0, 0.0621, 86.67
910.0, 0.0621, 86.67
911.0, 0.0621, 86.68
912.0, 0.0618, 86.73
913.0, 0.0620, 86.69
914.0, 0.0621, 86.67
915.0, 0.0618, 86.73
916.0, 0.0618, 86.74
917.0, 0.0618, 86.74
918.0, 0.0616, 86.77
919.0, 0.0617, 86.75
920.0, 0.0619, 86.72
921.0, 0.0616, 86.78
922.0, 0.0616, 86.78
923.0, 0.0616, 86.78
924.0, 0.0617, 86.75
925.0, 0.0617, 86.77
926.0, 0.0615, 86.80
927.0, 0.0613, 86.84
928.0, 0.0615, 86.80
929.0, 0.0614, 86.81
930.0, 0.0613, 86.83
931.0, 0.0613, 86.84
932.0, 0.0612, 86.85
933.0, 0.0613, 86.83
934.0, 0.0612, 86.86
935.0, 0.0611, 86.87
936.0, 0.0612, 86.86
937.0, 0.0610, 86.90
938.0, 0.0610, 86.89
939.0, 0.0610, 86.91
940.0, 0.0610, 86.90
941.0, 0.0608, 86.94
942.0, 0.0609, 86.92
943.0, 0.0607, 86.95
944.0, 0.0608, 86.94
945.0, 0.0608, 86.93
946.0, 0.0607, 86.96
947.0, 0.0608, 86.94
948.0, 0.0607, 86.95
949.0, 0.0607, 86.96
950.0, 0.0605, 86.99
951.0, 0.0607, 86.96
952.0, 0.0606, 86.97
953.0, 0.0605, 87.01
954.0, 0.0604, 87.02
955.0, 0.0605, 86.99
956.0, 0.0603, 87.03
957.0, 0.0603, 87.03
958.0, 0.0603, 87.05
959.0, 0.0602, 87.05
960.0, 0.0604, 87.02
961.0, 0.0603, 87.03
962.0, 0.0601, 87.07
963.0, 0.0602, 87.06
964.0, 0.0602, 87.05
965.0, 0.0602, 87.06
966.0, 0.0601, 87.08
967.0, 0.0603, 87.05
968.0, 0.0601, 87.07
969.0, 0.0601, 87.08
970.0, 0.0601, 87.07
971.0, 0.0600, 87.10
972.0, 0.0599, 87.11
973.0, 0.0597, 87.15
974.0, 0.0599, 87.11
975.0, 0.0597, 87.15
976.0, 0.0599, 87.11
977.0, 0.0600, 87.09
978.0, 0.0598, 87.13
979.0, 0.0598, 87.15
980.0, 0.0597, 87.16
981.0, 0.0596, 87.17
982.0, 0.0597, 87.16
983.0, 0.0595, 87.19
984.0, 0.0597, 87.17
985.0, 0.0595, 87.20
986.0, 0.0595, 87.20
987.0, 0.0594, 87.21
988.0, 0.0596, 87.17
989.0, 0.0596, 87.18
990.0, 0.0596, 87.19
991.0, 0.0595, 87.19
992.0, 0.0594, 87.21
993.0, 0.0594, 87.22
994.0, 0.0593, 87.24
995.0, 0.0592, 87.26
996.0, 0.0594, 87.22
997.0, 0.0594, 87.22
998.0, 0.0591, 87.27
999.0, 0.0592, 87.26
1000.0, 0.0592, 87.26
1001.0, 0.0590, 87.30
1002.0, 0.0590, 87.29
1003.0, 0.0590, 87.30
1004.0, 0.0589, 87.31
1005.0, 0.0590, 87.29
1006.0, 0.0588, 87.34
1007.0, 0.0589, 87.32
1008.0, 0.0589, 87.32
1009.0, 0.0588, 87.33
1010.0, 0.0589, 87.31
1011.0, 0.0589, 87.32
1012.0, 0.0590, 87.29
1013.0, 0.0591, 87.28
1014.0, 0.0590, 87.30
1015.0, 0.0588, 87.34
1016.0, 0.0589, 87.31
1017.0, 0.0588, 87.34
1018.0, 0.0588, 87.34
1019.0, 0.0588, 87.33
1020.0, 0.0588, 87.34
1021.0, 0.0591, 87.28
1022.0, 0.0591, 87.28
1023.0, 0.0581, 87.49
1024.0, 0.0580, 87.50
1025.0, 0.0582, 87.45
1026.0, 0.0582, 87.47
1027.0, 0.0582, 87.45
1028.0, 0.0582, 87.45
1029.0, 0.0584, 87.41
1030.0, 0.0583, 87.43
1031.0, 0.0583, 87.43
1032.0, 0.0582, 87.45
1033.0, 0.0583, 87.45
1034.0, 0.0585, 87.40
1035.0, 0.0585, 87.40
1036.0, 0.0584, 87.42
1037.0, 0.0585, 87.40
1038.0, 0.0586, 87.38
1039.0, 0.0587, 87.36
1040.0, 0.0585, 87.39
1041.0, 0.0587, 87.36
1042.0, 0.0589, 87.32
1043.0, 0.0587, 87.35
1044.0, 0.0587, 87.35
1045.0, 0.0588, 87.34
1046.0, 0.0588, 87.33
1047.0, 0.0588, 87.34
1048.0, 0.0589, 87.32
1049.0, 0.0589, 87.32
1050.0, 0.0589, 87.31
1051.0, 0.0588, 87.34
1052.0, 0.0591, 87.27
1053.0, 0.0591, 87.27
1054.0, 0.0592, 87.25
1055.0, 0.0593, 87.24
1056.0, 0.0591, 87.27
1057.0, 0.0591, 87.27
1058.0, 0.0591, 87.27
1059.0, 0.0590, 87.29
1060.0, 0.0591, 87.28
1061.0, 0.0593, 87.24
1062.0, 0.0592, 87.25
1063.0, 0.0591, 87.28
1064.0, 0.0591, 87.28
1065.0, 0.0593, 87.23
1066.0, 0.0594, 87.22
1067.0, 0.0590, 87.30
1068.0, 0.0586, 87.37
1069.0, 0.0587, 87.36
1070.0, 0.0587, 87.36
1071.0, 0.0590, 87.29
1072.0, 0.0592, 87.25
1073.0, 0.0589, 87.31
1074.0, 0.0583, 87.44
1075.0, 0.0580, 87.50
1076.0, 0.0585, 87.40
1077.0, 0.0591, 87.28
1078.0, 0.0593, 87.23
1079.0, 0.0595, 87.19
1080.0, 0.0594, 87.22
1081.0, 0.0588, 87.34
1082.0, 0.0581, 87.48
1083.0, 0.0583, 87.45
1084.0, 0.0588, 87.34
1085.0, 0.0589, 87.32
1086.0, 0.0592, 87.26
1087.0, 0.0599, 87.12
1088.0, 0.0595, 87.20
1089.0, 0.0594, 87.22
1090.0, 0.0599, 87.13
1091.0, 0.0599, 87.13
1092.0, 0.0592, 87.27
1093.0, 0.0591, 87.27
1094.0, 0.0590, 87.30
1095.0, 0.0585, 87.40
1096.0, 0.0583, 87.43
1097.0, 0.0583, 87.43
1098.0, 0.0585, 87.40
1099.0, 0.0575, 87.61
1100.0, 0.0574, 87.63
