Sample Name, Equipo1S2.sca
Time, November 05 14:42:31 2021
Operator, Jose Mendez
Lamp, 0
Slit,0.0
Scan From, 1100.0nm
Scan To, 190.0nm
Scan Step, 1.0nm
Sample Filter, 10
memo, 
WL(nm), Abs, T%
190.0, 1.7814, 1.65
191.0, 1.7503, 1.78
192.0, 1.7904, 1.62
193.0, 1.6044, 2.49
194.0, 1.5196, 3.02
195.0, 1.4626, 3.45
196.0, 1.4623, 3.45
197.0, 1.5065, 3.12
198.0, 1.5425, 2.87
199.0, 1.5534, 2.80
200.0, 1.5761, 2.65
201.0, 1.6105, 2.45
202.0, 1.5941, 2.55
203.0, 1.5382, 2.90
204.0, 1.3862, 4.11
205.0, 1.3954, 4.02
206.0, 1.3752, 4.21
207.0, 1.3890, 4.08
208.0, 1.4207, 3.80
209.0, 1.3907, 4.07
210.0, 1.3879, 4.09
211.0, 1.3989, 3.99
212.0, 1.4335, 3.69
213.0, 1.4623, 3.45
214.0, 1.4360, 3.66
215.0, 1.4297, 3.72
216.0, 1.4415, 3.62
217.0, 1.4105, 3.89
218.0, 1.4400, 3.63
219.0, 1.4954, 3.20
220.0, 1.4229, 3.78
221.0, 1.4522, 3.53
222.0, 1.4782, 3.32
223.0, 1.4755, 3.35
224.0, 1.4619, 3.45
225.0, 1.4222, 3.78
226.0, 1.4610, 3.46
227.0, 1.4489, 3.56
228.0, 1.4769, 3.33
229.0, 1.5232, 3.00
230.0, 1.5067, 3.11
231.0, 1.5424, 2.87
232.0, 1.5130, 3.07
233.0, 1.5378, 2.90
234.0, 1.5520, 2.81
235.0, 1.5694, 2.70
236.0, 1.5640, 2.73
237.0, 1.6010, 2.51
238.0, 1.6384, 2.30
239.0, 1.7118, 1.94
240.0, 1.7798, 1.66
241.0, 1.8652, 1.36
242.0, 1.9470, 1.13
243.0, 2.0512, 0.89
244.0, 2.1761, 0.67
245.0, 2.2820, 0.52
246.0, 2.3962, 0.40
247.0, 2.5074, 0.31
248.0, 2.6123, 0.24
249.0, 2.7104, 0.19
250.0, 2.8007, 0.16
251.0, 1.7848, 1.64
252.0, 1.5023, 3.15
253.0, 1.4230, 3.78
254.0, 1.3455, 4.51
255.0, 1.2443, 5.70
256.0, 1.2082, 6.19
257.0, 1.1591, 6.93
258.0, 1.1236, 7.52
259.0, 1.0921, 8.09
260.0, 1.0652, 8.61
261.0, 1.0482, 8.95
262.0, 1.0206, 9.54
263.0, 1.0037, 9.92
264.0, 0.9768, 10.55
265.0, 0.9565, 11.05
266.0, 0.9438, 11.38
267.0, 0.9350, 11.62
268.0, 0.9394, 11.50
269.0, 0.8936, 12.78
270.0, 0.8677, 13.56
271.0, 0.8704, 13.48
272.0, 0.8585, 13.85
273.0, 0.8477, 14.20
274.0, 0.8334, 14.67
275.0, 0.8225, 15.05
276.0, 0.8107, 15.46
277.0, 0.7997, 15.86
278.0, 0.7897, 16.23
279.0, 0.7802, 16.59
280.0, 0.7694, 17.01
281.0, 0.7597, 17.39
282.0, 0.7506, 17.76
283.0, 0.7413, 18.14
284.0, 0.7322, 18.53
285.0, 0.7241, 18.88
286.0, 0.7154, 19.26
287.0, 0.7071, 19.63
288.0, 0.6987, 20.01
289.0, 0.6905, 20.39
290.0, 0.6825, 20.77
291.0, 0.6749, 21.14
292.0, 0.6678, 21.49
293.0, 0.6599, 21.89
294.0, 0.6529, 22.24
295.0, 0.6452, 22.63
296.0, 0.6383, 23.00
297.0, 0.6302, 23.43
298.0, 0.6232, 23.81
299.0, 0.6162, 24.20
300.0, 0.6090, 24.61
301.0, 0.6020, 25.00
302.0, 0.5951, 25.40
303.0, 0.5878, 25.84
304.0, 0.5810, 26.24
305.0, 0.5747, 26.63
306.0, 0.5674, 27.08
307.0, 0.5606, 27.51
308.0, 0.5538, 27.94
309.0, 0.5468, 28.39
310.0, 0.5394, 28.88
311.0, 0.5328, 29.32
312.0, 0.5252, 29.84
313.0, 0.5185, 30.30
314.0, 0.5114, 30.80
315.0, 0.5044, 31.30
316.0, 0.4977, 31.79
317.0, 0.4907, 32.31
318.0, 0.4841, 32.80
319.0, 0.4770, 33.34
320.0, 0.4697, 33.91
321.0, 0.4625, 34.48
322.0, 0.4555, 35.04
323.0, 0.4484, 35.61
324.0, 0.4413, 36.20
325.0, 0.4342, 36.80
326.0, 0.4268, 37.43
327.0, 0.4198, 38.03
328.0, 0.4130, 38.63
329.0, 0.4061, 39.26
330.0, 0.3993, 39.87
331.0, 0.3928, 40.47
332.0, 0.3861, 41.10
333.0, 0.3802, 41.67
334.0, 0.3783, 41.85
335.0, 0.3638, 43.27
336.0, 0.3558, 44.08
337.0, 0.3519, 44.47
338.0, 0.3464, 45.04
339.0, 0.3431, 45.39
340.0, 0.3320, 46.56
341.0, 0.3269, 47.11
342.0, 0.3210, 47.75
343.0, 0.3141, 48.52
344.0, 0.3075, 49.26
345.0, 0.3010, 50.00
346.0, 0.2951, 50.69
347.0, 0.2883, 51.48
348.0, 0.2815, 52.30
349.0, 0.2759, 52.97
350.0, 0.2702, 53.68
351.0, 0.2641, 54.44
352.0, 0.2580, 55.21
353.0, 0.2523, 55.93
354.0, 0.2462, 56.72
355.0, 0.2405, 57.48
356.0, 0.2350, 58.21
357.0, 0.2293, 58.98
358.0, 0.2234, 59.79
359.0, 0.2180, 60.54
360.0, 0.2125, 61.31
361.0, 0.2076, 62.00
362.0, 0.2020, 62.80
363.0, 0.1969, 63.55
364.0, 0.1916, 64.33
365.0, 0.1867, 65.06
366.0, 0.1816, 65.82
367.0, 0.1767, 66.57
368.0, 0.1722, 67.27
369.0, 0.1676, 67.99
370.0, 0.1653, 68.35
371.0, 0.1622, 68.83
372.0, 0.1572, 69.64
373.0, 0.1528, 70.34
374.0, 0.1486, 71.02
375.0, 0.1445, 71.70
376.0, 0.1428, 71.97
377.0, 0.1359, 73.12
378.0, 0.1322, 73.75
379.0, 0.1279, 74.48
380.0, 0.1246, 75.06
381.0, 0.1208, 75.72
382.0, 0.1177, 76.25
383.0, 0.1145, 76.83
384.0, 0.1118, 77.31
385.0, 0.1085, 77.90
386.0, 0.1057, 78.40
387.0, 0.1031, 78.87
388.0, 0.1004, 79.37
389.0, 0.0983, 79.75
390.0, 0.0961, 80.15
391.0, 0.0939, 80.56
392.0, 0.0918, 80.94
393.0, 0.0901, 81.26
394.0, 0.0881, 81.63
395.0, 0.0865, 81.94
396.0, 0.0852, 82.18
397.0, 0.0835, 82.51
398.0, 0.0824, 82.72
399.0, 0.0811, 82.97
400.0, 0.0799, 83.20
401.0, 0.0788, 83.41
402.0, 0.0777, 83.61
403.0, 0.0771, 83.74
404.0, 0.0758, 83.98
405.0, 0.0750, 84.15
406.0, 0.0740, 84.33
407.0, 0.0735, 84.43
408.0, 0.0726, 84.60
409.0, 0.0724, 84.64
410.0, 0.0716, 84.81
411.0, 0.0710, 84.91
412.0, 0.0707, 84.97
413.0, 0.0703, 85.06
414.0, 0.0702, 85.08
415.0, 0.0697, 85.18
416.0, 0.0695, 85.21
417.0, 0.0690, 85.31
418.0, 0.0687, 85.37
419.0, 0.0686, 85.38
420.0, 0.0686, 85.38
421.0, 0.0686, 85.38
422.0, 0.0686, 85.39
423.0, 0.0686, 85.39
424.0, 0.0685, 85.40
425.0, 0.0687, 85.36
426.0, 0.0688, 85.34
427.0, 0.0689, 85.33
428.0, 0.0690, 85.31
429.0, 0.0691, 85.29
430.0, 0.0695, 85.21
431.0, 0.0696, 85.20
432.0, 0.0697, 85.17
433.0, 0.0702, 85.08
434.0, 0.0702, 85.07
435.0, 0.0706, 84.99
436.0, 0.0708, 84.95
437.0, 0.0709, 84.94
438.0, 0.0713, 84.86
439.0, 0.0718, 84.77
440.0, 0.0721, 84.70
441.0, 0.0724, 84.64
442.0, 0.0730, 84.52
443.0, 0.0736, 84.41
444.0, 0.0738, 84.37
445.0, 0.0742, 84.29
446.0, 0.0748, 84.18
447.0, 0.0753, 84.08
448.0, 0.0757, 84.01
449.0, 0.0760, 83.94
450.0, 0.0755, 84.05
451.0, 0.0742, 84.30
452.0, 0.0747, 84.20
453.0, 0.0752, 84.09
454.0, 0.0754, 84.06
455.0, 0.0764, 83.87
456.0, 0.0763, 83.90
457.0, 0.0768, 83.79
458.0, 0.0777, 83.62
459.0, 0.0784, 83.49
460.0, 0.0787, 83.43
461.0, 0.0793, 83.31
462.0, 0.0798, 83.22
463.0, 0.0800, 83.17
464.0, 0.0811, 82.97
465.0, 0.0814, 82.91
466.0, 0.0818, 82.83
467.0, 0.0828, 82.64
468.0, 0.0835, 82.51
469.0, 0.0835, 82.50
470.0, 0.0840, 82.42
471.0, 0.0847, 82.29
472.0, 0.0851, 82.21
473.0, 0.0859, 82.05
474.0, 0.0864, 81.96
475.0, 0.0866, 81.92
476.0, 0.0875, 81.75
477.0, 0.0881, 81.64
478.0, 0.0887, 81.52
479.0, 0.0896, 81.37
480.0, 0.0898, 81.32
481.0, 0.0903, 81.23
482.0, 0.0908, 81.13
483.0, 0.0914, 81.03
484.0, 0.0921, 80.88
485.0, 0.0924, 80.83
486.0, 0.0929, 80.74
487.0, 0.0934, 80.65
488.0, 0.0937, 80.59
489.0, 0.0942, 80.50
490.0, 0.0947, 80.40
491.0, 0.0958, 80.20
492.0, 0.0960, 80.17
493.0, 0.0963, 80.10
494.0, 0.0970, 79.98
495.0, 0.0976, 79.87
496.0, 0.0984, 79.72
497.0, 0.0989, 79.63
498.0, 0.0997, 79.49
499.0, 0.0997, 79.48
500.0, 0.1003, 79.37
501.0, 0.1011, 79.24
502.0, 0.1014, 79.17
503.0, 0.1019, 79.08
504.0, 0.1024, 78.99
505.0, 0.1029, 78.90
506.0, 0.1034, 78.82
507.0, 0.1040, 78.70
508.0, 0.1043, 78.65
509.0, 0.1049, 78.54
510.0, 0.1053, 78.47
511.0, 0.1058, 78.38
512.0, 0.1062, 78.31
513.0, 0.1068, 78.20
514.0, 0.1069, 78.18
515.0, 0.1074, 78.09
516.0, 0.1081, 77.96
517.0, 0.1084, 77.90
518.0, 0.1088, 77.83
519.0, 0.1091, 77.78
520.0, 0.1101, 77.61
521.0, 0.1106, 77.51
522.0, 0.1107, 77.50
523.0, 0.1111, 77.44
524.0, 0.1116, 77.34
525.0, 0.1118, 77.31
526.0, 0.1125, 77.18
527.0, 0.1130, 77.09
528.0, 0.1136, 76.98
529.0, 0.1139, 76.93
530.0, 0.1143, 76.86
531.0, 0.1147, 76.79
532.0, 0.1154, 76.66
533.0, 0.1155, 76.64
534.0, 0.1155, 76.65
535.0, 0.1161, 76.54
536.0, 0.1164, 76.48
537.0, 0.1172, 76.34
538.0, 0.1172, 76.36
539.0, 0.1177, 76.25
540.0, 0.1182, 76.18
541.0, 0.1184, 76.14
542.0, 0.1191, 76.02
543.0, 0.1193, 75.97
544.0, 0.1197, 75.92
545.0, 0.1203, 75.81
546.0, 0.1206, 75.75
547.0, 0.1208, 75.72
548.0, 0.1209, 75.70
549.0, 0.1213, 75.64
550.0, 0.1217, 75.56
551.0, 0.1221, 75.50
552.0, 0.1223, 75.46
553.0, 0.1226, 75.40
554.0, 0.1230, 75.34
555.0, 0.1232, 75.30
556.0, 0.1236, 75.23
557.0, 0.1237, 75.22
558.0, 0.1239, 75.19
559.0, 0.1243, 75.12
560.0, 0.1244, 75.09
561.0, 0.1249, 75.01
562.0, 0.1251, 74.97
563.0, 0.1251, 74.97
564.0, 0.1255, 74.90
565.0, 0.1259, 74.83
566.0, 0.1265, 74.73
567.0, 0.1266, 74.71
568.0, 0.1272, 74.61
569.0, 0.1274, 74.58
570.0, 0.1277, 74.53
571.0, 0.1281, 74.46
572.0, 0.1282, 74.43
573.0, 0.1281, 74.46
574.0, 0.1287, 74.36
575.0, 0.1289, 74.33
576.0, 0.1290, 74.30
577.0, 0.1292, 74.27
578.0, 0.1293, 74.24
579.0, 0.1296, 74.20
580.0, 0.1301, 74.12
581.0, 0.1302, 74.10
582.0, 0.1302, 74.09
583.0, 0.1303, 74.08
584.0, 0.1307, 74.02
585.0, 0.1307, 74.01
586.0, 0.1291, 74.29
587.0, 0.1291, 74.29
588.0, 0.1295, 74.22
589.0, 0.1293, 74.25
590.0, 0.1297, 74.19
591.0, 0.1301, 74.12
592.0, 0.1301, 74.11
593.0, 0.1304, 74.06
594.0, 0.1304, 74.07
595.0, 0.1302, 74.10
596.0, 0.1308, 73.99
597.0, 0.1311, 73.94
598.0, 0.1311, 73.94
599.0, 0.1316, 73.86
600.0, 0.1318, 73.83
601.0, 0.1317, 73.83
602.0, 0.1321, 73.77
603.0, 0.1321, 73.77
604.0, 0.1321, 73.77
605.0, 0.1325, 73.70
606.0, 0.1329, 73.65
607.0, 0.1331, 73.61
608.0, 0.1331, 73.61
609.0, 0.1332, 73.59
610.0, 0.1333, 73.58
611.0, 0.1334, 73.55
612.0, 0.1338, 73.48
613.0, 0.1341, 73.44
614.0, 0.1340, 73.45
615.0, 0.1345, 73.37
616.0, 0.1344, 73.38
617.0, 0.1348, 73.31
618.0, 0.1346, 73.35
619.0, 0.1346, 73.35
620.0, 0.1352, 73.26
621.0, 0.1350, 73.28
622.0, 0.1353, 73.23
623.0, 0.1354, 73.22
624.0, 0.1354, 73.21
625.0, 0.1355, 73.19
626.0, 0.1355, 73.19
627.0, 0.1358, 73.15
628.0, 0.1359, 73.14
629.0, 0.1359, 73.13
630.0, 0.1362, 73.08
631.0, 0.1361, 73.09
632.0, 0.1364, 73.05
633.0, 0.1364, 73.05
634.0, 0.1369, 72.97
635.0, 0.1367, 72.99
636.0, 0.1372, 72.92
637.0, 0.1370, 72.94
638.0, 0.1370, 72.95
639.0, 0.1374, 72.88
640.0, 0.1373, 72.89
641.0, 0.1373, 72.89
642.0, 0.1377, 72.82
643.0, 0.1375, 72.86
644.0, 0.1376, 72.85
645.0, 0.1376, 72.85
646.0, 0.1375, 72.85
647.0, 0.1377, 72.84
648.0, 0.1378, 72.82
649.0, 0.1381, 72.76
650.0, 0.1381, 72.76
651.0, 0.1380, 72.78
652.0, 0.1380, 72.78
653.0, 0.1381, 72.76
654.0, 0.1381, 72.76
655.0, 0.1384, 72.70
656.0, 0.1383, 72.72
657.0, 0.1378, 72.81
658.0, 0.1381, 72.75
659.0, 0.1381, 72.77
660.0, 0.1386, 72.68
661.0, 0.1385, 72.70
662.0, 0.1385, 72.69
663.0, 0.1387, 72.66
664.0, 0.1389, 72.62
665.0, 0.1386, 72.68
666.0, 0.1388, 72.64
667.0, 0.1387, 72.66
668.0, 0.1387, 72.66
669.0, 0.1387, 72.66
670.0, 0.1389, 72.63
671.0, 0.1388, 72.65
672.0, 0.1385, 72.70
673.0, 0.1388, 72.65
674.0, 0.1386, 72.67
675.0, 0.1389, 72.62
676.0, 0.1386, 72.68
677.0, 0.1387, 72.66
678.0, 0.1385, 72.70
679.0, 0.1390, 72.61
680.0, 0.1385, 72.69
681.0, 0.1389, 72.63
682.0, 0.1388, 72.64
683.0, 0.1390, 72.61
684.0, 0.1393, 72.56
685.0, 0.1389, 72.62
686.0, 0.1389, 72.63
687.0, 0.1388, 72.64
688.0, 0.1387, 72.66
689.0, 0.1389, 72.63
690.0, 0.1388, 72.64
691.0, 0.1389, 72.63
692.0, 0.1387, 72.67
693.0, 0.1390, 72.61
694.0, 0.1390, 72.61
695.0, 0.1389, 72.63
696.0, 0.1390, 72.61
697.0, 0.1391, 72.59
698.0, 0.1390, 72.61
699.0, 0.1387, 72.65
700.0, 0.1390, 72.61
701.0, 0.1391, 72.59
702.0, 0.1391, 72.59
703.0, 0.1388, 72.65
704.0, 0.1390, 72.62
705.0, 0.1388, 72.64
706.0, 0.1388, 72.64
707.0, 0.1388, 72.65
708.0, 0.1388, 72.65
709.0, 0.1388, 72.65
710.0, 0.1388, 72.64
711.0, 0.1388, 72.64
712.0, 0.1386, 72.68
713.0, 0.1387, 72.66
714.0, 0.1386, 72.68
715.0, 0.1385, 72.70
716.0, 0.1388, 72.65
717.0, 0.1387, 72.66
718.0, 0.1387, 72.66
719.0, 0.1385, 72.69
720.0, 0.1386, 72.68
721.0, 0.1386, 72.68
722.0, 0.1387, 72.67
723.0, 0.1387, 72.65
724.0, 0.1386, 72.68
725.0, 0.1385, 72.69
726.0, 0.1384, 72.71
727.0, 0.1382, 72.74
728.0, 0.1383, 72.74
729.0, 0.1382, 72.75
730.0, 0.1381, 72.76
731.0, 0.1383, 72.73
732.0, 0.1383, 72.73
733.0, 0.1382, 72.74
734.0, 0.1381, 72.76
735.0, 0.1379, 72.80
736.0, 0.1382, 72.74
737.0, 0.1380, 72.77
738.0, 0.1382, 72.75
739.0, 0.1379, 72.79
740.0, 0.1377, 72.83
741.0, 0.1379, 72.79
742.0, 0.1378, 72.82
743.0, 0.1378, 72.82
744.0, 0.1376, 72.84
745.0, 0.1374, 72.88
746.0, 0.1376, 72.85
747.0, 0.1375, 72.86
748.0, 0.1376, 72.84
749.0, 0.1374, 72.88
750.0, 0.1372, 72.91
751.0, 0.1371, 72.93
752.0, 0.1372, 72.91
753.0, 0.1373, 72.89
754.0, 0.1368, 72.98
755.0, 0.1370, 72.94
756.0, 0.1370, 72.94
757.0, 0.1368, 72.99
758.0, 0.1371, 72.94
759.0, 0.1372, 72.91
760.0, 0.1368, 72.99
761.0, 0.1366, 73.01
762.0, 0.1366, 73.01
763.0, 0.1369, 72.97
764.0, 0.1365, 73.03
765.0, 0.1363, 73.07
766.0, 0.1363, 73.07
767.0, 0.1363, 73.06
768.0, 0.1360, 73.11
769.0, 0.1359, 73.14
770.0, 0.1365, 73.03
771.0, 0.1361, 73.10
772.0, 0.1365, 73.02
773.0, 0.1358, 73.15
774.0, 0.1360, 73.12
775.0, 0.1356, 73.18
776.0, 0.1358, 73.16
777.0, 0.1357, 73.17
778.0, 0.1355, 73.20
779.0, 0.1358, 73.15
780.0, 0.1357, 73.16
781.0, 0.1358, 73.15
782.0, 0.1358, 73.14
783.0, 0.1358, 73.15
784.0, 0.1356, 73.17
785.0, 0.1355, 73.20
786.0, 0.1353, 73.23
787.0, 0.1350, 73.29
788.0, 0.1349, 73.30
789.0, 0.1349, 73.29
790.0, 0.1349, 73.30
791.0, 0.1348, 73.31
792.0, 0.1351, 73.27
793.0, 0.1346, 73.34
794.0, 0.1345, 73.36
795.0, 0.1344, 73.38
796.0, 0.1347, 73.34
797.0, 0.1342, 73.42
798.0, 0.1343, 73.41
799.0, 0.1343, 73.41
800.0, 0.1347, 73.34
801.0, 0.1346, 73.35
802.0, 0.1341, 73.43
803.0, 0.1341, 73.43
804.0, 0.1338, 73.48
805.0, 0.1334, 73.55
806.0, 0.1338, 73.49
807.0, 0.1332, 73.58
808.0, 0.1335, 73.53
809.0, 0.1332, 73.58
810.0, 0.1334, 73.55
811.0, 0.1334, 73.55
812.0, 0.1330, 73.62
813.0, 0.1333, 73.57
814.0, 0.1330, 73.62
815.0, 0.1331, 73.61
816.0, 0.1330, 73.62
817.0, 0.1328, 73.66
818.0, 0.1326, 73.70
819.0, 0.1327, 73.68
820.0, 0.1323, 73.73
821.0, 0.1326, 73.68
822.0, 0.1324, 73.72
823.0, 0.1326, 73.69
824.0, 0.1321, 73.77
825.0, 0.1321, 73.78
826.0, 0.1323, 73.74
827.0, 0.1322, 73.76
828.0, 0.1324, 73.72
829.0, 0.1317, 73.84
830.0, 0.1315, 73.87
831.0, 0.1316, 73.86
832.0, 0.1316, 73.86
833.0, 0.1316, 73.86
834.0, 0.1314, 73.89
835.0, 0.1312, 73.92
836.0, 0.1312, 73.92
837.0, 0.1312, 73.93
838.0, 0.1307, 74.01
839.0, 0.1305, 74.04
840.0, 0.1305, 74.04
841.0, 0.1309, 73.98
842.0, 0.1306, 74.03
843.0, 0.1308, 73.99
844.0, 0.1307, 74.01
845.0, 0.1305, 74.05
846.0, 0.1304, 74.06
847.0, 0.1301, 74.12
848.0, 0.1300, 74.13
849.0, 0.1304, 74.07
850.0, 0.1303, 74.08
851.0, 0.1299, 74.15
852.0, 0.1298, 74.17
853.0, 0.1300, 74.13
854.0, 0.1295, 74.21
855.0, 0.1294, 74.24
856.0, 0.1297, 74.18
857.0, 0.1299, 74.14
858.0, 0.1295, 74.22
859.0, 0.1295, 74.21
860.0, 0.1297, 74.19
861.0, 0.1292, 74.27
862.0, 0.1292, 74.26
863.0, 0.1292, 74.27
864.0, 0.1290, 74.29
865.0, 0.1288, 74.33
866.0, 0.1286, 74.37
867.0, 0.1286, 74.36
868.0, 0.1288, 74.34
869.0, 0.1283, 74.43
870.0, 0.1280, 74.47
871.0, 0.1282, 74.45
872.0, 0.1281, 74.45
873.0, 0.1276, 74.54
874.0, 0.1278, 74.50
875.0, 0.1279, 74.50
876.0, 0.1277, 74.52
877.0, 0.1276, 74.54
878.0, 0.1280, 74.48
879.0, 0.1273, 74.59
880.0, 0.1276, 74.54
881.0, 0.1275, 74.56
882.0, 0.1276, 74.55
883.0, 0.1274, 74.57
884.0, 0.1270, 74.65
885.0, 0.1266, 74.71
886.0, 0.1268, 74.68
887.0, 0.1271, 74.63
888.0, 0.1266, 74.72
889.0, 0.1268, 74.68
890.0, 0.1263, 74.76
891.0, 0.1261, 74.80
892.0, 0.1268, 74.67
893.0, 0.1265, 74.73
894.0, 0.1262, 74.78
895.0, 0.1261, 74.80
896.0, 0.1257, 74.86
897.0, 0.1256, 74.89
898.0, 0.1253, 74.93
899.0, 0.1252, 74.95
900.0, 0.1257, 74.88
901.0, 0.1258, 74.85
902.0, 0.1255, 74.90
903.0, 0.1255, 74.90
904.0, 0.1252, 74.95
905.0, 0.1252, 74.96
906.0, 0.1253, 74.94
907.0, 0.1252, 74.96
908.0, 0.1249, 75.01
909.0, 0.1249, 75.01
910.0, 0.1246, 75.06
911.0, 0.1248, 75.02
912.0, 0.1245, 75.07
913.0, 0.1246, 75.07
914.0, 0.1242, 75.14
915.0, 0.1240, 75.15
916.0, 0.1239, 75.19
917.0, 0.1238, 75.19
918.0, 0.1234, 75.27
919.0, 0.1235, 75.25
920.0, 0.1240, 75.17
921.0, 0.1237, 75.22
922.0, 0.1239, 75.18
923.0, 0.1236, 75.23
924.0, 0.1235, 75.25
925.0, 0.1235, 75.25
926.0, 0.1233, 75.28
927.0, 0.1228, 75.36
928.0, 0.1234, 75.26
929.0, 0.1233, 75.29
930.0, 0.1231, 75.33
931.0, 0.1230, 75.33
932.0, 0.1227, 75.38
933.0, 0.1232, 75.30
934.0, 0.1227, 75.38
935.0, 0.1225, 75.43
936.0, 0.1226, 75.40
937.0, 0.1222, 75.47
938.0, 0.1223, 75.46
939.0, 0.1224, 75.45
940.0, 0.1221, 75.50
941.0, 0.1218, 75.54
942.0, 0.1219, 75.52
943.0, 0.1216, 75.59
944.0, 0.1220, 75.52
945.0, 0.1218, 75.54
946.0, 0.1214, 75.61
947.0, 0.1216, 75.58
948.0, 0.1214, 75.61
949.0, 0.1213, 75.63
950.0, 0.1211, 75.67
951.0, 0.1213, 75.63
952.0, 0.1212, 75.65
953.0, 0.1210, 75.69
954.0, 0.1209, 75.70
955.0, 0.1209, 75.71
956.0, 0.1205, 75.76
957.0, 0.1205, 75.78
958.0, 0.1204, 75.79
959.0, 0.1201, 75.84
960.0, 0.1204, 75.80
961.0, 0.1201, 75.83
962.0, 0.1202, 75.83
963.0, 0.1203, 75.80
964.0, 0.1200, 75.85
965.0, 0.1200, 75.87
966.0, 0.1199, 75.88
967.0, 0.1199, 75.88
968.0, 0.1200, 75.85
969.0, 0.1198, 75.90
970.0, 0.1199, 75.87
971.0, 0.1196, 75.93
972.0, 0.1195, 75.95
973.0, 0.1196, 75.93
974.0, 0.1193, 75.99
975.0, 0.1190, 76.02
976.0, 0.1190, 76.03
977.0, 0.1190, 76.02
978.0, 0.1189, 76.05
979.0, 0.1187, 76.08
980.0, 0.1187, 76.09
981.0, 0.1187, 76.09
982.0, 0.1189, 76.05
983.0, 0.1188, 76.07
984.0, 0.1183, 76.15
985.0, 0.1187, 76.08
986.0, 0.1181, 76.18
987.0, 0.1180, 76.21
988.0, 0.1180, 76.21
989.0, 0.1181, 76.19
990.0, 0.1177, 76.26
991.0, 0.1179, 76.22
992.0, 0.1180, 76.21
993.0, 0.1178, 76.25
994.0, 0.1177, 76.25
995.0, 0.1175, 76.30
996.0, 0.1176, 76.28
997.0, 0.1173, 76.33
998.0, 0.1172, 76.35
999.0, 0.1176, 76.28
1000.0, 0.1175, 76.30
1001.0, 0.1173, 76.34
1002.0, 0.1173, 76.33
1003.0, 0.1170, 76.39
1004.0, 0.1168, 76.42
1005.0, 0.1172, 76.34
1006.0, 0.1168, 76.43
1007.0, 0.1165, 76.47
1008.0, 0.1166, 76.45
1009.0, 0.1167, 76.43
1010.0, 0.1164, 76.49
1011.0, 0.1162, 76.53
1012.0, 0.1164, 76.49
1013.0, 0.1167, 76.44
1014.0, 0.1164, 76.49
1015.0, 0.1160, 76.56
1016.0, 0.1161, 76.54
1017.0, 0.1157, 76.61
1018.0, 0.1161, 76.54
1019.0, 0.1162, 76.52
1020.0, 0.1156, 76.63
1021.0, 0.1157, 76.62
1022.0, 0.1158, 76.59
1023.0, 0.1152, 76.70
1024.0, 0.1151, 76.71
1025.0, 0.1151, 76.72
1026.0, 0.1148, 76.77
1027.0, 0.1150, 76.74
1028.0, 0.1150, 76.74
1029.0, 0.1147, 76.79
1030.0, 0.1146, 76.81
1031.0, 0.1148, 76.78
1032.0, 0.1146, 76.80
1033.0, 0.1143, 76.87
1034.0, 0.1145, 76.82
1035.0, 0.1148, 76.77
1036.0, 0.1148, 76.78
1037.0, 0.1145, 76.82
1038.0, 0.1146, 76.81
1039.0, 0.1145, 76.83
1040.0, 0.1146, 76.81
1041.0, 0.1146, 76.81
1042.0, 0.1146, 76.81
1043.0, 0.1142, 76.88
1044.0, 0.1144, 76.84
1045.0, 0.1142, 76.89
1046.0, 0.1140, 76.92
1047.0, 0.1141, 76.90
1048.0, 0.1139, 76.93
1049.0, 0.1137, 76.97
1050.0, 0.1139, 76.94
1051.0, 0.1139, 76.92
1052.0, 0.1142, 76.89
1053.0, 0.1139, 76.92
1054.0, 0.1141, 76.89
1055.0, 0.1141, 76.90
1056.0, 0.1143, 76.86
1057.0, 0.1139, 76.93
1058.0, 0.1134, 77.01
1059.0, 0.1133, 77.03
1060.0, 0.1136, 76.98
1061.0, 0.1142, 76.88
1062.0, 0.1140, 76.92
1063.0, 0.1136, 76.99
1064.0, 0.1129, 77.11
1065.0, 0.1133, 77.04
1066.0, 0.1140, 76.91
1067.0, 0.1135, 77.00
1068.0, 0.1121, 77.26
1069.0, 0.1129, 77.10
1070.0, 0.1126, 77.15
1071.0, 0.1131, 77.07
1072.0, 0.1134, 77.03
1073.0, 0.1132, 77.05
1074.0, 0.1126, 77.16
1075.0, 0.1120, 77.27
1076.0, 0.1116, 77.34
1077.0, 0.1117, 77.32
1078.0, 0.1125, 77.18
1079.0, 0.1133, 77.04
1080.0, 0.1133, 77.04
1081.0, 0.1127, 77.15
1082.0, 0.1114, 77.37
1083.0, 0.1113, 77.39
1084.0, 0.1115, 77.36
1085.0, 0.1115, 77.36
1086.0, 0.1115, 77.36
1087.0, 0.1121, 77.25
1088.0, 0.1120, 77.27
1089.0, 0.1119, 77.28
1090.0, 0.1128, 77.13
1091.0, 0.1135, 77.00
1092.0, 0.1132, 77.05
1093.0, 0.1130, 77.08
1094.0, 0.1130, 77.10
1095.0, 0.1126, 77.16
1096.0, 0.1118, 77.30
1097.0, 0.1120, 77.27
1098.0, 0.1131, 77.07
1099.0, 0.1104, 77.55
1100.0, 0.1108, 77.48
